##NAME:²É¼¯Í¼Æ×
##X_AXIS:Raman Shift(cm-1)
##Y_AXIS:ORIGINAL_REDUCE_DARK
##DATE:2025-03-15
##TIME:23:21:57
##LASERLENGTH:785
##LASERLEVEL:120
##INTGRTIME:5000
##>>>>>Begin Processed Spectral Data<<<<<
158,95
159,98.9534
160,103.35
161,113.245
162,126.442
163,140.261
164,155.227
165,170.369
166,187.546
167,204.722
168,238.31
169,275.768
170,311.81
171,346.644
172,380.284
173,410.726
174,441.196
175,476.513
176,511.829
177,541.275
178,568.661
179,585.106
180,589.525
181,591.865
182,586.558
183,581.252
184,577.207
185,573.224
186,558.814
187,539.776
188,519.772
189,498.508
190,479.277
191,469.526
192,459.774
193,452.467
194,445.371
195,435.907
196,425.257
197,411.672
198,393.911
199,379.499
200,382.609
201,385.719
202,377.103
203,367.323
204,360.182
205,354.399
206,353.018
207,357.913
208,362.147
209,363.038
210,363.929
211,360.721
212,357.157
213,354.795
214,353.012
215,355.281
216,362.865
217,369
218,369
219,369
220,366.877
221,364.644
222,361.774
223,358.646
224,359.119
225,363.591
226,367.638
227,370.322
228,372.993
229,370.308
230,367.622
231,366.311
232,365.416
233,367.403
234,371.884
235,375.82
236,378.511
237,380.294
238,370.871
239,361.448
240,367.979
241,377.407
242,385.449
243,392.636
244,392.055
245,379.47
246,370.815
247,381.609
248,392.403
249,396.401
250,400.001
251,397.422
252,392.469
253,391.808
254,395.412
255,398.381
256,399.734
257,401.115
258,402.919
259,404.723
260,409.967
261,415.834
262,420.564
263,424.628
264,426.247
265,424.44
266,422.816
267,421.912
268,421.008
269,419.206
270,417.397
271,417
272,417
273,415.189
274,412.019
275,412.14
276,418.031
277,422.149
278,416.708
279,411.267
280,409.706
281,408.345
282,409.017
283,410.379
284,410.012
285,408.195
286,405.756
287,402.121
288,399.451
289,402.634
290,405.817
291,409.002
292,412.187
293,406.559
294,397.91
295,395.997
296,399.641
297,401.357
298,399.534
299,397.566
300,394.83
301,392.094
302,394.204
303,396.485
304,393.111
305,388.089
306,383.332
307,378.764
308,373.292
309,366.435
310,359.673
311,353.27
312,346.933
313,343.73
314,340.527
315,335.409
316,329.914
317,324.418
318,318.92
319,313.85
320,309.266
321,304.681
322,300.095
323,295.803
324,293.967
325,292.131
326,292.426
327,292.886
328,291.275
329,288.978
330,286.944
331,285.105
332,283.266
333,281.426
334,278.549
335,272.105
336,265.516
337,256.305
338,247.094
339,251.279
340,257.269
341,260.639
342,262.944
343,260.749
344,254.751
345,248.234
346,240.849
347,237.306
348,248.391
349,258.584
350,248.879
351,239.174
352,234.748
353,231.049
354,232.32
355,235.558
356,238.541
357,241.319
358,238.612
359,227.496
360,221.623
361,232.746
362,242.855
363,241
364,239.145
365,241.566
366,244.35
367,236.816
368,226.138
369,227.69
370,236.98
371,242.855
372,244.714
373,244.997
374,241.741
375,238.559
376,235.767
377,233.021
378,235.349
379,237.677
380,240.808
381,244.069
382,244.667
383,244.201
384,240.549
385,234.486
386,230.802
387,230.335
388,230.395
389,231.796
390,233.197
391,234.599
392,236
393,236
394,236
395,239.624
396,243.834
397,241.955
398,237.743
399,237.922
400,241.2
401,238.565
402,228.725
403,222.742
404,225.086
405,228.033
406,233.661
407,238.37
408,226.167
409,213.964
410,214.73
411,216.609
412,217.372
413,217.842
414,222.679
415,229.731
416,228.205
417,219.267
418,214.58
419,215.992
420,218.078
421,221.846
422,224.156
423,218.972
424,214.154
425,217.926
426,221.698
427,218.528
428,214.754
429,214.756
430,215.7
431,217.288
432,219.177
433,217.065
434,211.867
435,209.848
436,211.74
437,214.579
438,219.31
439,222.687
440,221.267
441,219.898
442,218.951
443,218.003
444,214.694
445,211.376
446,215.204
447,219.946
448,218.786
449,215.939
450,214.364
451,213.414
452,216.75
453,223.4
454,225.038
455,220.76
456,217.325
457,215.423
458,213.401
459,211.021
460,209.716
461,214.477
462,218.809
463,214.998
464,211.187
465,213.719
466,216.579
467,212.119
468,206.396
469,209.33
470,215.056
471,214.792
472,211.45
473,209.459
474,208.504
475,208.904
476,210.816
477,209.996
478,204.734
479,201.417
480,202.852
481,204.384
482,206.3
483,207.194
484,200.007
485,193.012
486,193.491
487,193.971
488,203.007
489,212.6
490,205.392
491,195.314
492,194.48
493,196.401
494,199.975
495,204.299
496,207.75
497,210.634
498,208.454
499,201.72
500,199.077
501,201.484
502,203.891
503,206.298
504,207.859
505,207.377
506,205.949
507,201.128
508,197.277
509,199.207
510,201
511,201
512,201
513,205.824
514,210.654
515,202.926
516,194.228
517,195.907
518,199.291
519,206.119
520,213.859
521,214.599
522,212.663
523,213.91
524,216.816
525,214.841
526,209.51
527,209.052
528,212.931
529,212.736
530,207.885
531,204.213
532,202.271
533,200.832
534,200.347
535,200.835
536,203.751
537,203.554
538,192.857
539,184.502
540,187.421
541,190.057
542,190.544
543,191.122
544,193.07
545,194.977
546,192.541
547,190.104
548,188.133
549,186.182
550,186.885
551,187.861
552,187.582
553,187.093
554,188.58
555,190.534
556,186.535
557,180.67
558,182.498
559,187.388
560,186.704
561,183.279
562,182
563,182
564,184.288
565,188.207
566,187.873
567,183.952
568,182.985
569,184.947
570,184.864
571,182.411
572,180.165
573,178.202
574,177.953
575,180.41
576,182.866
577,185.324
578,184.498
579,176.63
580,172.26
581,176.689
582,180.994
583,184.932
584,185.821
585,175.968
586,168.754
587,172.697
588,176.641
589,180.586
590,182.936
591,175.04
592,167.947
593,167.453
594,167.123
595,168.605
596,170.523
597,179.42
598,187.77
599,181.341
600,174.959
601,171.99
602,169.021
603,169.492
604,169.987
605,177.716
606,185.642
607,176.533
608,166.619
609,170.65
610,175.61
611,174.628
612,173.14
613,173.45
614,173.947
615,170.453
616,166.479
617,170.372
618,175.343
619,174.273
620,172.284
621,174.987
622,178.47
623,176.044
624,172.559
625,174.928
626,178.416
627,182.735
628,187.222
629,189.649
630,191.644
631,192
632,192
633,194.042
634,196.539
635,194.148
636,190.651
637,193.255
638,197.254
639,201.255
640,205.257
641,208.038
642,210.54
643,206.913
644,201.905
645,199.769
646,198.265
647,195.936
648,193.429
649,190.922
650,188.414
651,190.096
652,192.605
653,189.192
654,184.672
655,183.572
656,183.07
657,186.463
658,190.485
659,191.439
660,191.942
661,187.996
662,183.466
663,186.614
664,190.643
665,192.378
666,193.889
667,187.459
668,180.401
669,175.242
670,170.198
671,169.515
672,169.01
673,169.495
674,170
675,170.505
676,170.897
677,165.842
678,161.279
679,167.855
680,173.9
681,172.382
682,171.182
683,173.208
684,175.058
685,175.565
686,176.431
687,179.473
688,182.429
689,184.966
690,187.603
691,190.648
692,192.884
693,192.376
694,193.183
695,197.757
696,197.599
697,185.906
698,181.296
699,191.47
700,198.365
701,199.383
702,197.194
703,190.064
704,186.438
705,187.457
706,188.953
707,190.993
708,190.967
709,188.927
710,184.935
711,179.32
712,176.7
713,176.19
714,174.715
715,172.671
716,173.03
717,174.564
718,172.803
719,169.733
720,163.546
721,156.38
722,159.549
723,165.183
724,167.314
725,168.852
726,167.147
727,165.096
728,161.089
729,157.025
730,163.698
731,169.857
732,167.289
733,164.666
734,161.582
735,159.585
736,163.184
737,166
738,166
739,167.127
740,171.245
741,173.659
742,172.629
743,174.006
744,179.159
745,180.381
746,176.771
747,176.051
748,178.114
749,182.83
750,189.54
751,189.383
752,185.251
753,187.243
754,191.893
755,191.03
756,188.445
757,188.857
758,189.891
759,185.831
760,181.172
761,184.492
762,187.85
763,183.186
764,178.787
765,176.713
766,174.459
767,171.346
768,171.173
769,179.997
770,185.17
771,182.573
772,179.566
773,175.928
774,176.687
775,182.407
776,188.128
777,193.85
778,197.3
779,199.382
780,201.831
781,204.435
782,204.184
783,203.142
784,201.198
785,199.112
786,198.013
787,196.969
788,195.925
789,194.348
790,188.603
791,183.377
792,180.241
793,179.64
794,185.391
795,185.882
796,177.511
797,172.759
798,172.235
799,176.037
800,183.369
801,179.28
802,168.8
803,167.921
804,170.543
805,168.834
806,166.211
807,166.965
808,167.948
809,164.271
810,161.695
811,168
812,173
813,173
814,171.234
815,165.447
816,163.49
817,167.174
818,168.469
819,167.415
820,165.085
821,161.923
822,162.12
823,163.701
824,161.004
825,157.312
826,157.967
827,159.011
828,159.539
829,160.607
830,165.362
831,167.757
832,162.47
833,161
834,166.819
835,169.04
836,166.923
837,164.506
838,161.858
839,161
840,161
841,164.763
842,169.535
843,165.691
844,161.018
845,162.08
846,163.637
847,168.417
848,170.271
849,163.363
850,159.392
851,160.455
852,159.963
853,157.835
854,157.647
855,158.711
856,158.224
857,157.159
858,160.174
859,163.904
860,156.209
861,149.053
862,149.586
863,151.553
864,158.492
865,160.569
866,153.626
867,151.786
868,155.527
869,157.648
870,158.717
871,157.033
872,154.358
873,155.391
874,156.996
875,158.603
876,160.349
877,163.028
878,163.16
879,156.191
880,152.428
881,153.5
882,155.434
883,158.117
884,162.243
885,167.076
886,159.308
887,148.562
888,152.585
889,157.33
890,161.095
891,163.877
892,163.339
893,161.205
894,156.359
895,155.106
896,157.261
897,162.606
898,169.614
899,165.808
900,159.335
901,158.488
902,158
903,158
904,158.131
905,158.672
906,158.364
907,156.742
908,154.826
909,152.663
910,153.126
911,154.75
912,154.542
913,154.001
914,156.706
915,158.668
916,156.499
917,156.004
918,159.258
919,161
920,161
921,160.662
922,160.119
923,159.152
924,158.066
925,156.468
926,155.435
927,159.786
928,162.431
929,160.255
930,159.461
931,160.55
932,157.163
933,150.625
934,159.239
935,172.866
936,166
937,157.637
938,153.271
939,152.189
940,160.925
941,164.398
942,160.574
943,156.427
944,152.054
945,151
946,151
947,154.055
948,157.113
949,158.208
950,157.789
951,153.406
952,152.73
953,156.567
954,157.313
955,156.216
956,153.797
957,151.054
958,154.229
959,157.786
960,162.729
961,165.07
962,162.322
963,159.002
964,155.153
965,154.771
966,155.871
967,151.139
968,146.513
969,154.225
970,160.138
971,160.69
972,158.592
973,153.078
974,149.969
975,148.313
976,156.503
977,166.992
978,156.513
979,147.791
980,146.686
981,150.614
982,162.779
983,165.473
984,161.047
985,155.352
986,149.263
987,156.95
988,164.168
989,165.276
990,165.423
991,163.76
992,162.699
993,162.144
994,162.411
995,162.966
996,159.87
997,157.386
998,160.164
999,164.641
1000,172.425
1001,172.992
1002,167.429
1003,163.932
1004,161.149
1005,168.908
1006,175.663
1007,173.434
1008,168.621
1009,159.143
1010,158.14
1011,163.718
1012,169.299
1013,174.881
1014,164.07
1015,155.945
1016,160.974
1017,165.559
1018,169.472
1019,169.636
1020,167.399
1021,166.54
1022,165.862
1023,161.942
1024,158.581
1025,156.9
1026,157.563
1027,160.927
1028,162.764
1029,163.886
1030,165.008
1031,165.347
1032,159.732
1033,156
1034,156
1035,157.562
1036,160.372
1037,161
1038,161
1039,159.314
1040,157.5
1041,155.248
1042,155.507
1043,158.887
1044,159.622
1045,159.058
1046,154.447
1047,150.978
1048,158.879
1049,162.212
1050,157.131
1051,155
1052,155
1053,155.458
1054,155.953
1055,154.822
1056,152.454
1057,146.795
1058,146.005
1059,149.969
1060,153.933
1061,157.899
1062,156.343
1063,154.523
1064,152.255
1065,152.775
1066,156.747
1067,152.56
1068,144.612
1069,149.767
1070,154.815
1071,153.679
1072,153.458
1073,154.596
1074,155.367
1075,155.936
1076,150.951
1077,146.223
1078,147.932
1079,149.854
1080,152.134
1081,156.182
1082,161.314
1083,161.506
1084,159.703
1085,148.286
1086,143.893
1087,151.889
1088,153.953
1089,152.238
1090,149.538
1091,147
1092,147
1093,150.544
1094,160.274
1095,160.112
1096,153.812
1097,155.496
1098,157.639
1099,154.772
1100,153.657
1101,155.378
1102,154.167
1103,151.297
1104,153.059
1105,154.822
1106,153.673
1107,151.331
1108,147.306
1109,149.496
1110,154.673
1111,155
1112,154.081
1113,149.474
1114,147.267
1115,147.843
1116,153.031
1117,159.949
1118,154.274
1119,150
1120,150
1121,150.608
1122,151.763
1123,154.295
1124,157.11
1125,158.844
1126,161.158
1127,164.628
1128,161.801
1129,154.857
1130,158.06
1131,161.913
1132,161.334
1133,159.037
1134,154.4
1135,161.098
1136,172.697
1137,173
1138,172.273
1139,169.37
1140,172.295
1141,180.428
1142,178.249
1143,173.85
1144,172.105
1145,168.653
1146,162.253
1147,167.922
1148,180.148
1149,179.374
1150,176.257
1151,168.098
1152,163.129
1153,161.38
1154,163.284
1155,166.08
1156,167.248
1157,166.753
1158,163.248
1159,161.248
1160,160.079
1161,159.455
1162,159.911
1163,164.006
1164,166.601
1165,167.771
1166,168
1167,167.772
1168,165.428
1169,163.771
1170,163.185
1171,162.196
1172,161.023
1173,157.547
1174,157.114
1175,164.748
1176,169.012
1177,170.775
1178,164.847
1179,158.597
1180,156.244
1181,157.496
1182,162.793
1183,157.634
1184,149.956
1185,149.367
1186,149
1187,149
1188,154.619
1189,162.876
1190,159.512
1191,155.285
1192,149.38
1193,151.232
1194,158.322
1195,156.327
1196,154
1197,154
1198,152.456
1199,149.497
1200,148.507
1201,148.593
1202,152.74
1203,154.73
1204,154.138
1205,152.634
1206,151.145
1207,152.925
1208,153.765
1209,153.171
1210,153.423
1211,154.101
1212,157.667
1213,158.766
1214,155.198
1215,150.048
1216,144.098
1217,153.368
1218,161.085
1219,164.659
1220,160.787
1221,152.444
1222,150.871
1223,150.805
1224,153.788
1225,152.52
1226,148.342
1227,151.839
1228,155.437
1229,157.23
1230,159.023
1231,160.817
1232,157.24
1233,155.625
1234,162.808
1235,165.002
1236,163.205
1237,161.408
1238,160.26
1239,161.459
1240,164.634
1241,169.432
1242,165.238
1243,161.906
1244,166.109
1245,168.331
1246,168.931
1247,170.597
1248,170.529
1249,163.913
1250,166.052
1251,175.079
1252,180.326
1253,183.857
1254,183.255
1255,186.132
1256,191.557
1257,192.554
1258,191.901
1259,187.677
1260,195.465
1261,211.163
1262,213.144
1263,213.824
1264,213.22
1265,213
1266,213
1267,213.595
1268,212.4
1269,207.557
1270,203.945
1271,200.983
1272,200.377
1273,197.024
1274,189.141
1275,179.045
1276,169.438
1277,174.901
1278,181.154
1279,188.442
1280,176.621
1281,162
1282,162
1283,165.621
1284,172.921
1285,174
1286,172.98
1287,168.108
1288,166
1289,166
1290,164.871
1291,165.743
1292,171.843
1293,168.477
1294,160.049
1295,166.155
1296,170.679
1297,172.512
1298,173.448
1299,173.222
1300,165.271
1301,164.399
1302,171.743
1303,175.537
1304,175.604
1305,163.351
1306,160.417
1307,164.708
1308,167.857
1309,169.26
1310,166.806
1311,164.763
1312,163.105
1313,165.562
1314,167
1315,167
1316,166.031
1317,165.1
1318,165.715
1319,167.651
1320,170.729
1321,167.067
1322,164
1323,164
1324,167.285
1325,172.109
1326,174.577
1327,175.216
1328,173.364
1329,172.008
1330,170.317
1331,166.61
1332,166.049
1333,167.904
1334,170.347
1335,174.26
1336,181.068
1337,178.565
1338,173.817
1339,181.872
1340,184.791
1341,182.311
1342,190.678
1343,197.023
1344,193.3
1345,192.404
1346,193.025
1347,193.646
1348,194.536
1349,195.779
1350,197.534
1351,196.465
1352,184.642
1353,182.647
1354,186.998
1355,185.129
1356,183.259
1357,181.39
1358,180.013
1359,180.174
1360,186.413
1361,186.807
1362,183.061
1363,187.301
1364,189.043
1365,186.543
1366,185.511
1367,185.689
1368,189.442
1369,189.169
1370,186.039
1371,187.856
1372,189
1373,189
1374,192.989
1375,197.377
1376,199.259
1377,200
1378,199.918
1379,193.638
1380,194.229
1381,204.282
1382,198.702
1383,193.5
1384,199.791
1385,204.041
1386,206.925
1387,205.665
1388,202.028
1389,195.728
1390,196.673
1391,199.692
1392,205.369
1393,203.852
1394,200
1395,200
1396,197.25
1397,192.196
1398,188.355
1399,184.082
1400,179.023
1401,183.048
1402,187.862
1403,187.229
1404,183.364
1405,178.075
1406,179.343
1407,177.253
1408,171.546
1409,173.869
1410,176.417
1411,177.686
1412,177.522
1413,175.527
1414,167.266
1415,165.922
1416,169.061
1417,170.969
1418,170.829
1419,168.283
1420,162.34
1421,159.421
1422,163.881
1423,166.91
1424,167.964
1425,162.223
1426,161.173
1427,163.029
1428,163.668
1429,164.307
1430,164.945
1431,162.661
1432,163.688
1433,171.363
1434,164.442
1435,158.581
1436,170.106
1437,172.728
1438,170.287
1439,163.237
1440,163.469
1441,169.881
1442,171.26
1443,172.815
1444,174.741
1445,166.107
1446,162.766
1447,174.977
1448,176.065
1449,173.365
1450,170.149
1451,168.172
1452,167.23
1453,169.806
1454,168.925
1455,165.059
1456,165
1457,164.72
1458,164.075
1459,164
1460,164
1461,164
1462,154.862
1463,148.616
1464,159.605
1465,158.53
1466,153.094
1467,153.741
1468,152.835
1469,151.036
1470,151.684
1471,154.986
1472,160.82
1473,157.229
1474,153.614
1475,150.37
1476,151.151
1477,152.449
1478,153.748
1479,158.717
1480,161.259
1481,154.756
1482,155.85
1483,158.121
1484,153.564
1485,159.273
1486,168.842
1487,167.538
1488,163.556
1489,157.861
1490,155.252
1491,157.057
1492,162.931
1493,159.773
1494,157.104
1495,155.144
1496,159.847
1497,162.221
1498,160.258
1499,161.137
1500,159.772
1501,153.223
1502,153.066
1503,154.94
1504,158.218
1505,153.008
1506,148.087
1507,152.68
1508,151.192
1509,147.751
1510,146.437
1511,145.561
1512,144.52
1513,141.232
1514,138.354
1515,136.347
1516,139.639
1517,139.841
1518,137.73
1519,133.776
1520,134.179
1521,138.135
1522,142.094
1523,139.209
1524,130.027
1525,137.952
1526,141.677
1527,141.016
1528,139.064
1529,138.307
1530,138.968
1531,146.558
1532,149.833
1533,147.184
1534,155.632
1535,159.883
1536,157.231
1537,165.475
1538,167.775
1539,159.812
1540,158.404
1541,158
1542,158
1543,158.589
1544,158.492
1545,157.162
1546,159.338
1547,159.75
1548,156.421
1549,155.418
1550,155
1551,155
1552,152.094
1553,149.504
1554,148.169
1555,152.662
1556,152.744
1557,144.062
1558,140.654
1559,139.764
1560,141.77
1561,144.369
1562,145.477
1563,144.139
1564,139.198
1565,137.35
1566,140.7
1567,139.779
1568,137.034
1569,132.339
1570,134.491
1571,136.588
1572,137.931
1573,132.903
1574,132.473
1575,137.85
1576,132.117
1577,128.674
1578,128.001
1579,135.397
1580,136.233
1581,131.058
1582,133.08
1583,133.265
1584,132.251
1585,136.299
1586,134.477
1587,128.734
1588,126.033
1589,124.165
1590,124.305
1591,133.77
1592,132.989
1593,127.878
1594,127.201
1595,124.62
1596,123.839
1597,131.97
1598,127.388
1599,123.799
1600,133.973
1601,134.913
1602,132.223
1603,126.791
1604,126
1605,128.599
1606,135.396
1607,137.239
1608,135.302
1609,129.178
1610,136.271
1611,138.29
1612,134.861
1613,130.772
1614,129.773
1615,132.161
1616,143.759
1617,144.969
1618,140.769
1619,139.403
1620,138.036
1621,136.009
1622,131.907
1623,135.263
1624,140.519
1625,145.31
1626,144.242
1627,141.103
1628,136.307
1629,136
1630,135.345
1631,133.828
1632,124.907
1633,121
1634,122.015
1635,131.632
1636,128.747
1637,120.464
1638,117.713
1639,115.981
1640,115.594
1641,117.659
1642,115.125
1643,112.736
1644,112.047
1645,107.502
1646,107.658
1647,112.956
1648,111.575
1649,108.986
1650,106.654
1651,111.491
1652,113.951
1653,113.161
1654,105.553
1655,102.898
1656,104.917
1657,113.226
1658,104.576
1659,97.3936
1660,94.3038
1661,108.868
1662,108.17
1663,99.2447
1664,108.27
1665,105.67
1666,99.462
1667,97.377
1668,98.709
1669,101.061
1670,103.844
1671,103.343
1672,103.353
1673,103.85
1674,101.76
1675,101.888
1676,103.847
1677,108.033
1678,107.927
1679,104.418
1680,96.7359
1681,95.3682
1682,97.3147
1683,102.03
1684,102.729
1685,97.4243
1686,90.9016
1687,95.8029
1688,94.8821
1689,93
1690,93
1691,101.221
1692,103.329
1693,97.7867
1694,93.5744
1695,89.3607
1696,86.9967
1697,91.9163
1698,91.9035
1699,90.4969
1700,89.0898
1701,94.272
1702,95.9107
1703,93.7303
1704,90.9117
1705,90
1706,90.5464
1707,92.6626
1708,91.2203
1709,89.7008
1710,88.9413
1711,81.1695
1712,83.0233
1713,90.5023
1714,93.3314
1715,89.6768
1716,85.5036
1717,84.0876
1718,89.3166
1719,90.5073
1720,87.4261
1721,82.4621
1722,84.0033
1723,87.6305
1724,89.7602
1725,91.2606
1726,89.6147
1727,85.4114
1728,91.0996
1729,87.789
1730,82.7409
1731,85.588
1732,87.8273
1733,85.4644
1734,78.0679
1735,79.4937
1736,80.92
1737,81.8266
1738,81.1129
1739,81.601
1740,83.8914
1741,87.911
1742,85.7666
1743,83.6215
1744,81.8253
1745,81.1097
1746,83.4247
1747,86.6113
1748,89.6527
1749,83.2026
1750,82.8888
1751,83.1064
1752,75.932
1753,83.1194
1754,88.6851
1755,89.4528
1756,82.9856
1757,85.484
1758,89.7827
1759,89.0634
1760,80.468
1761,77.5049
1762,80.9637
1763,88.1685
1764,84.6239
1765,79.2242
1766,77.0605
1767,82.6116
1768,83.3068
1769,82.5991
1770,90.5453
1771,84.9146
1772,82.1936
1773,87.0731
1774,88.5201
1775,84.6453
1776,78.9607
1777,75.3392
1778,82.2248
1779,86
1780,85.039
1781,78.51
1782,76.442
1783,77.1357
1784,79.9899
1785,79.2633
1786,75.2916
1787,72.7156
1788,79.2618
1789,77.4173
1790,76.7472
1791,78.1018
1792,78.8303
1793,81.2364
1794,82.4237
1795,80.9652
1796,79.5059
1797,83.2929
1798,86.1358
1799,79.5619
1800,76.3266
1801,76.9969
1802,80.1306
1803,80.8622
1804,78.6235
1805,77
1806,77
1807,77
1808,78.0488
1809,77.7116
1810,74.044
1811,78.3506
1812,76.326
1813,72.3873
1814,73.8566
1815,76.6534
1816,78.7972
1817,79.5976
1818,77.3901
1819,80.0307
1820,80.9724
1821,79.2376
1822,81.4486
1823,76.465
1824,73.7463
1825,78.0865
1826,80.301
1827,78.9782
1828,76.7559
1829,76.0169
1830,73.1103
1831,77.5439
1832,82.1836
1833,75.5225
1834,75.6824
1835,71.7685
1836,68.4619
1837,79.5812
1838,70.6474
1839,69.6671
1840,77.3932
1841,79.6205
1842,75.6859
1843,70.844
1844,68.3342
1845,78.0014
1846,74.6882
1847,72.672
1848,75.1325
1849,66.9397
1850,71.2565
1851,74.4293
1852,70.9402
1853,70.1943
1854,71.104
1855,71.1043
1856,69.0907
1857,70.585
1858,70.46
1859,69.4247
1860,68.1782
1861,71.9199
1862,71.9348
1863,72.9704
1864,77.5712
1865,67.0778
1866,66.1198
1867,69.9602
1868,74.6661
1869,66.4083
1870,68.7885
1871,73
1872,72.5821
1873,63.5594
1874,66.3889
1875,70.7087
1876,69.8238
1877,66.8115
1878,67.101
1879,68.3041
1880,69.2322
1881,72.2493
1882,75.8344
1883,73.4959
1884,64.3841
1885,68.1614
1886,74.8806
1887,75.559
1888,68.6988
1889,66.4288
1890,66.614
1891,70.3415
1892,74.9696
1893,68.9068
1894,71.869
1895,71.1769
1896,68.9443
1897,78.0528
1898,72.8758
1899,68.6796
1900,67.8004
1901,70.8413
1902,71.721
1903,69.5908
1904,66.2709
1905,64.0178
1906,67.0652
1907,70.1137
1908,69.6735
1909,63.8395
1910,61.5504
1911,65.639
1912,67.9695
1913,66
1914,66
1915,63.4551
1916,64.0055
1917,68.8285
1918,77.2485
1919,68.9325
1920,65.4636
1921,68.0698
1922,74.9697
1923,71.1815
1924,65.2207
1925,64.5839
1926,73.4659
1927,78.8438
1928,73.9658
1929,71.4892
1930,74.8487
##>>>>>End Processed Spectral Data<<<<<
