##NAME:²É¼¯Í¼Æ×
##X_AXIS:Raman Shift(cm-1)
##Y_AXIS:ORIGINAL_REDUCE_DARK
##DATE:2025-03-15
##TIME:22:06:18
##LASERLENGTH:785
##LASERLEVEL:120
##INTGRTIME:5000
##>>>>>Begin Processed Spectral Data<<<<<
158,85
159,88.5581
160,92.515
161,100.596
162,111.154
163,123.571
164,139.417
165,155.369
166,172.546
167,189.722
168,215.465
169,243.228
170,272.191
171,302.175
172,333.724
173,369.462
174,405.187
175,438.737
176,472.288
177,491.137
178,504.831
179,514.527
180,519.83
181,524.378
182,526.147
183,527.916
184,519.992
185,511.584
186,506.853
187,503.754
188,493.349
189,473.414
190,456.687
191,454.914
192,453.141
193,446.467
194,439.371
195,430.498
196,420.735
197,412.252
198,405.592
199,400.642
200,404.64
201,408.639
202,406.978
203,404.755
204,399.007
205,391.445
206,387.367
207,388.257
208,388.632
209,386.405
210,384.179
211,389.328
212,395.12
213,398.205
214,399.988
215,397.912
216,390.774
217,385.171
218,386.063
219,386.956
220,391.671
221,396.583
222,393.866
223,388.056
224,383.093
225,379.068
226,378.126
227,387.074
228,395.999
229,395.551
230,395.104
231,392.59
232,389.455
233,388
234,388
235,389.094
236,392.681
237,396.034
238,396.482
239,396.931
240,393.96
241,390.369
242,392.337
243,397.727
244,401.53
245,402.878
246,404.227
247,405.576
248,406.925
249,404.024
250,400.874
251,400.651
252,401.551
253,403.582
254,406.736
255,410.271
256,414.779
257,418.885
258,417.081
259,415.277
260,415
261,415
262,417.564
263,421.628
264,424
265,424
266,423.265
267,419.648
268,416.031
269,416.448
270,416.901
271,422.3
272,429.09
273,431.483
274,430.577
275,430
276,430
277,428.581
278,419.513
279,410.445
280,409.569
281,409.115
282,412.729
283,417.722
284,420.494
285,421.402
286,419.357
287,411.632
288,405.064
289,405.519
290,405.974
291,406.858
292,407.768
293,407.661
294,407.206
295,407
296,407
297,407.964
298,410.699
299,411.987
300,405.603
301,399.218
302,399.881
303,400.794
304,395.344
305,388.039
306,388.468
307,394.407
308,395.833
309,390.348
310,384.483
311,377.166
312,369.734
313,356.92
314,344.107
315,341.235
316,340.319
317,342.388
318,346.053
319,341.981
320,329.146
321,319.868
322,319.409
323,318.458
324,313.41
325,308.362
326,313.968
327,320.397
328,321.655
329,321.196
330,318.096
331,313.039
332,309.633
333,308.713
334,306.134
335,297.849
336,289.806
337,286.122
338,282.438
339,285.654
340,289.802
341,291.656
342,292.578
343,290.249
344,285.174
345,280.963
346,278.193
347,276.384
348,278.232
349,279.901
350,277.59
351,275.28
352,274.594
353,274.131
354,273.006
355,271.618
356,271
357,271
358,271.731
359,273.584
360,275.328
361,276.718
362,277.855
363,276
364,274.145
365,274
366,274
367,273.288
368,272.36
369,273.707
370,276.494
371,275.65
372,270.537
373,268.003
374,271.259
375,274.808
376,279.927
377,284.988
378,283.591
379,282.194
380,279.994
381,277.665
382,275.668
383,273.803
384,273.265
385,273.732
386,274
387,274
388,273.736
389,272.803
390,271.934
391,271.467
392,271.001
393,276.611
394,282.22
395,280.986
396,278.648
397,283.752
398,291.708
399,292.529
400,288.315
401,281.776
402,272.405
403,267.929
404,274.023
405,279.344
406,281.22
407,283.387
408,290.897
409,298.407
410,297.702
411,296.294
412,297.116
413,298.526
414,293.074
415,284.141
416,280.252
417,280.723
418,278.487
419,272.368
420,267.326
421,264.971
422,261.695
423,253.684
424,246.212
425,251.398
426,256.585
427,259.17
428,261.529
429,260.867
430,259.451
431,258.678
432,258.206
433,258.534
434,259.479
435,256.819
436,249.726
437,247.211
438,253.834
439,259.729
440,263.043
441,265.388
442,259.704
443,254.02
444,251.639
445,249.269
446,256.147
447,264.209
448,263.048
449,259.252
450,254.818
451,250.071
452,249.339
453,251.714
454,253.218
455,253.693
456,254.337
457,255.288
458,254.322
459,247.66
460,242.716
461,247.477
462,251.881
463,249.499
464,247.117
465,250.626
466,254.439
467,250.119
468,244.396
469,246.608
470,251.38
471,250.792
472,247.45
473,244.648
474,242.259
475,238.513
476,233.255
477,230.911
478,233.303
479,235.694
480,238.087
481,239.52
482,237.126
483,234.946
484,234.467
485,233.976
486,233.017
487,232.059
488,234.252
489,236.65
490,237.82
491,238.78
492,239.37
493,239.85
494,241.322
495,243.244
496,245.75
497,248.634
498,249.747
499,249.266
500,246.415
501,240.639
502,236.644
503,235.681
504,235.141
505,235.623
506,235.79
507,234.826
508,234.208
509,235.655
510,236.624
511,231.315
512,226.006
513,234.684
514,243.377
515,239.963
516,235.614
517,235
518,235
519,236.53
520,238.465
521,240.751
522,243.171
523,246.866
524,251.225
525,253
526,253
527,252.487
528,251.517
529,253.264
530,258.115
531,255.884
532,243.263
533,238.187
534,247.415
535,250.799
536,239.622
537,231.445
538,233.39
539,234.833
540,233.86
541,232.262
542,225.933
543,220.243
544,224.14
545,228.041
546,232.427
547,236.813
548,229.997
549,222.683
550,221.115
551,220.139
552,225.021
553,230.879
554,230.815
555,229.35
556,224.907
557,219.531
558,219.749
559,222.194
560,224.64
561,227.086
562,226.773
563,224.815
564,222.856
565,220.896
566,217.873
567,213.952
568,212.246
569,212.737
570,213.682
571,215.154
572,216.417
573,217.399
574,217.237
575,215.272
576,213.827
577,213.335
578,213.313
579,214.296
580,215
581,215
582,214.876
583,214.383
584,215.199
585,220.618
586,223.869
587,217.954
588,212.119
589,206.694
590,202.931
591,209.84
592,215.733
593,213.264
594,210.672
595,206.72
596,203.261
597,207.71
598,212.035
599,213.024
600,213.863
601,203.966
602,194.069
603,199.9
604,205.842
605,207.929
606,209.911
607,206.213
608,202.248
609,201.07
610,200.078
611,203.658
612,207.628
613,203.95
614,199.481
615,202.103
616,205.581
617,206
618,206
619,206.432
620,206.929
621,209.133
622,211.622
623,211.578
624,211.08
625,212.673
626,214.666
627,214.585
628,214.086
629,220.596
630,228.577
631,239.022
632,250.001
633,249.549
634,246.553
635,244.37
636,242.372
637,241.186
638,240.186
639,242.035
640,244.536
641,239.294
642,232.288
643,234.27
644,238.276
645,239.821
646,240.823
647,238.11
648,234.601
649,232.337
650,230.331
651,229.581
652,229.079
653,228.154
654,227.149
655,221.012
656,213.977
657,219.926
658,227.97
659,230.316
660,231.825
661,232.445
662,232.948
663,229.386
664,225.357
665,222.245
666,219.221
667,218.533
668,218.029
669,214.669
670,211.138
671,206.15
672,201.103
673,201
674,201
675,205.04
676,208.887
677,203.326
678,197.957
679,196.945
680,196.498
681,204.09
682,211.955
683,222.59
684,231.766
685,229.74
686,227.569
687,224.527
688,223.288
689,230.898
690,237.201
691,238.216
692,238.074
693,234.011
694,231.131
695,231.64
696,229.782
697,222.156
698,217.659
699,219.694
700,221.729
701,223.765
702,223.597
703,220.032
704,219.972
705,224.558
706,225.093
707,221.014
708,218.742
709,218.232
710,214.656
711,208.531
712,208.997
713,214.104
714,213.751
715,210.174
716,205.222
717,199.598
718,201.296
719,205.9
720,207
721,207
722,206.173
723,205.149
724,198.429
725,190.742
726,190.463
727,190.976
728,197.356
729,203.994
730,202.454
731,200.686
732,195.037
733,190.223
734,192.278
735,194.752
736,199.379
737,203.112
738,203.626
739,204.563
740,206.622
741,206.466
742,201.831
743,201.808
744,209.023
745,213.925
746,215.988
747,217.525
748,218.557
749,218.411
750,217.378
751,219.944
752,224.593
753,224.199
754,221.615
755,218.242
756,214.623
757,216.142
758,218.728
759,222.706
760,226.847
761,216.525
762,205.883
763,202.256
764,199.903
765,208.718
766,214.918
767,208.693
768,204.895
769,208.528
770,211.332
771,212.371
772,214.024
773,216.623
774,216.045
775,211.886
776,211.706
777,214.828
778,222.175
779,232.065
780,235.732
781,236.774
782,236.592
783,236.071
784,235.099
785,234.056
786,232.026
787,229.74
788,220.866
789,213.237
790,215.326
791,216.896
792,216.374
793,216.596
794,218.688
795,216.102
796,205.639
797,198.793
798,196.176
799,200.767
800,211.242
801,211.304
802,205.54
803,204.768
804,205.817
805,206.866
806,207.915
807,206.07
808,203.895
809,196.543
810,190.405
811,194.084
812,197.545
813,200.173
814,200.234
815,194.447
816,192.064
817,194.696
818,196.797
819,198.377
820,198.681
821,198.154
822,197.254
823,196.199
824,198.14
825,200.777
826,198.584
827,196.011
828,196.539
829,196.663
830,194.021
831,193.74
832,201.142
833,203.273
834,195.338
835,192.68
836,196.385
837,196.805
838,194.687
839,197.581
840,202.88
841,200.237
842,195.465
843,192.606
844,190.046
845,192.7
846,195.142
847,196.204
848,195.67
849,190.356
850,188.567
851,192.82
852,192.407
853,187.088
854,185
855,185
856,181.119
857,175.794
858,180.441
859,186.835
860,185.961
861,185.053
862,185.586
863,186
864,186
865,186.935
866,189.605
867,191
868,191
869,190.352
870,189.283
871,189.393
872,189.928
873,188.609
874,187.004
875,185.931
876,185.768
877,191.662
878,194.443
879,188.546
880,184.786
881,184.25
882,185.434
883,188.117
884,190.081
885,191.692
886,194.173
887,196.859
888,193.943
889,190.859
890,189.245
891,189.352
892,195.272
893,197.006
894,191.621
895,188.17
896,186.554
897,187.063
898,188.68
899,190.731
900,192.888
901,193
902,193
903,193
904,191.817
905,186.954
906,183.364
907,181.742
908,184.228
909,190.178
910,190.874
911,189.25
912,186.71
913,184.003
914,188.871
915,192.502
916,189.249
917,187
918,187
919,186.243
920,184.615
921,187.039
922,191.926
923,193
924,193
925,193
926,192.511
927,187.616
928,183.431
929,181.255
930,182.306
931,187.751
932,192.238
933,196.052
934,198.638
935,200.818
936,189.5
937,178.408
938,183.32
939,188.095
940,192.462
941,194.542
942,193.45
943,191.713
944,189.527
945,184.849
946,179.381
947,185.109
948,191.338
949,194.623
950,195.183
951,188.61
952,183.517
953,180.229
954,181.748
955,186.135
956,190.524
957,194.914
958,189.079
959,183.913
960,183.363
961,185.232
962,191.827
963,195
964,195
965,193.458
966,191.257
967,188.083
968,185.147
969,187.35
970,188.031
971,184.173
972,183.926
973,188.338
974,187.937
975,184.627
976,188.923
977,194.995
978,186.169
979,180.043
980,185.57
981,188.161
982,185.949
983,188.79
984,195.429
985,195.31
986,193.095
987,193
988,192.832
989,191.724
990,190.038
991,187.266
992,187.507
993,190.281
994,189.355
995,187.135
996,187.522
997,188.694
998,193.696
999,197.377
1000,198.489
1001,198.398
1002,197.286
1003,197.414
1004,197.97
1005,200.636
1006,202.663
1007,200.434
1008,197.41
1009,192.95
1010,192.57
1011,195.359
1012,195.14
1013,194.024
1014,197.279
1015,198.74
1016,192.035
1017,189.113
1018,191.909
1019,196.41
1020,202.004
1021,200.7
1022,197.941
1023,196.261
1024,193.602
1025,187.999
1026,185.781
1027,187.463
1028,189.91
1029,192.714
1030,185.944
1031,179.718
1032,185.895
1033,193.204
1034,202.755
1035,200.441
1036,188.636
1037,185.563
1038,185.001
1039,192.307
1040,196.751
1041,191.12
1042,187.498
1043,186.371
1044,188.647
1045,192.593
1046,189.459
1047,186.21
1048,187.903
1049,188.801
1050,188.237
1051,187.016
1052,185.321
1053,181.793
1054,178.374
1055,187.423
1056,192.918
1057,188.957
1058,182.989
1059,175.063
1060,180.962
1061,191.725
1062,187.029
1063,182.285
1064,178.882
1065,177
1066,177
1067,180.886
1068,186.563
1069,180.184
1070,175.386
1071,183.911
1072,188.083
1073,185.809
1074,184.633
1075,184.064
1076,183.495
1077,183.668
1078,188.795
1079,190.292
1080,185.732
1081,184.707
1082,185.848
1083,187.977
1084,189.805
1085,188.093
1086,185.76
1087,182.333
1088,182.746
1089,185.603
1090,186.492
1091,186.936
1092,186.364
1093,187.251
1094,190.685
1095,188.819
1096,183.665
1097,180.005
1098,177.289
1099,179.582
1100,181.219
1101,181.793
1102,180.167
1103,177.297
1104,178.544
1105,179.733
1106,178.009
1107,178.908
1108,183.507
1109,183.446
1110,181.145
1111,181
1112,180.885
1113,180.309
1114,180
1115,180
1116,180.839
1117,181.992
1118,180.282
1119,179.149
1120,179.727
1121,179.088
1122,177.356
1123,182.048
1124,187.853
1125,185.541
1126,183.035
1127,180.143
1128,183.199
1129,190.143
1130,194.553
1131,197.48
1132,194.004
1133,192.491
1134,193.65
1135,193.19
1136,192.03
1137,199.347
1138,204.855
1139,204.274
1140,203.386
1141,202.225
1142,198.718
1143,195.451
1144,200.685
1145,202.293
1146,197.638
1147,193.359
1148,189.284
1149,194.961
1150,199.876
1151,199.293
1152,199.29
1153,199.873
1154,191.779
1155,183.005
1156,197.6
1157,205.545
1158,201.456
1159,195.485
1160,188.472
1161,191.817
1162,194.87
1163,194.285
1164,194.601
1165,195.771
1166,196.471
1167,197
1168,197
1169,199.062
1170,204.339
1171,204.392
1172,202.046
1173,196.245
1174,191.512
1175,189.75
1176,189
1177,189
1178,197.204
1179,203.489
1180,194.666
1181,189.168
1182,187.402
1183,188.364
1184,189.913
1185,188.734
1186,185.113
1187,177.449
1188,176.204
1189,177.973
1190,183.813
1191,187.485
1192,185.714
1193,183.237
1194,180.283
1195,180.535
1196,180.874
1197,180.283
1198,181.235
1199,183.602
1200,183.507
1201,182.915
1202,182.323
1203,183.079
1204,185.449
1205,188.732
1206,191.08
1207,179.806
1208,173.941
1209,176.316
1210,185.457
1211,196.848
1212,191.499
1213,187.177
1214,184.799
1215,184.79
1216,185.98
1217,186.585
1218,187
1219,187
1220,181.787
1221,173.444
1222,182.033
1223,189.322
1224,190.515
1225,188.874
1226,185.293
1227,185.548
1228,186.146
1229,186.743
1230,188.023
1231,189.817
1232,186.24
1233,184.625
1234,191.808
1235,190.675
1236,182.89
1237,190.492
1238,196.57
1239,189.976
1240,187.658
1241,188.858
1242,190.587
1243,194.07
1244,203.678
1245,206.017
1246,202.412
1247,190.818
1248,183.54
1249,194.968
1250,201.684
1251,204.693
1252,204.459
1253,203.857
1254,203.255
1255,207.524
1256,215.36
1257,214.892
1258,214.314
1259,215.521
1260,219.276
1261,224.71
1262,225
1263,225.704
1264,228.122
1265,230.155
1266,231.969
1267,230.215
1268,227.8
1269,224.168
1270,220.945
1271,218.017
1272,218.623
1273,216.482
1274,209.812
1275,206.674
1276,205.049
1277,205.656
1278,206
1279,206
1280,201.222
1281,196.171
1282,197.387
1283,197.698
1284,197.09
1285,196.481
1286,195.108
1287,190.845
1288,192.802
1289,199.505
1290,190.402
1291,183.697
1292,186.137
1293,192.918
1294,201.985
1295,200.153
1296,198.321
1297,196.488
1298,197.794
1299,199.821
1300,197.986
1301,197
1302,197
1303,193.955
1304,192.198
1305,198.324
1306,202.726
1307,205.791
1308,200.857
1309,197
1310,197
1311,195.763
1312,193.974
1313,193.359
1314,192.235
1315,190.391
1316,189.515
1317,189.697
1318,194.004
1319,191.376
1320,182.758
1321,182
1322,185.379
1323,197.088
1324,198.126
1325,193.809
1326,189.491
1327,190.135
1328,197.543
1329,199.992
1330,199.749
1331,192.951
1332,193.148
1333,198.713
1334,202.52
1335,204.384
1336,202.527
1337,205.105
1338,209.88
1339,218.554
1340,227.231
1341,235.91
1342,232.118
1343,226.372
1344,220.166
1345,220.829
1346,225.05
1347,226.293
1348,223.518
1349,215.437
1350,214
1351,215.868
1352,224.58
1353,222.706
1354,214.002
1355,215.248
1356,214.025
1357,209.039
1358,209.975
1359,211.765
1360,210.517
1361,208.538
1362,206.041
1363,202.928
1364,206.262
1365,220.012
1366,218.106
1367,212.885
1368,212.26
1369,215.663
1370,221.922
1371,214.577
1372,209.265
1373,207.385
1374,215.974
1375,223.869
1376,218.223
1377,215.239
1378,214.122
1379,223.543
1380,226.621
1381,220.966
1382,220.521
1383,222.2
1384,227.232
1385,226.142
1386,222.151
1387,224.669
1388,223.622
1389,218.582
1390,219.673
1391,221.752
1392,224.275
1393,221.402
1394,217.727
1395,223.41
1396,224.281
1397,221.123
1398,217.962
1399,215.281
1400,213.384
1401,212.495
1402,211.312
1403,208.146
1404,207.404
1405,208.225
1406,212.028
1407,206.37
1408,190.518
1409,193.016
1410,197.458
1411,201.901
1412,200.61
1413,198
1414,198
1415,196.462
1416,194.142
1417,198.595
1418,198.366
1419,192.637
1420,186.34
1421,183.827
1422,189.561
1423,192.433
1424,193.77
1425,192.494
1426,188.089
1427,181.883
1428,179.329
1429,183.824
1430,195.963
1431,191.738
1432,188.896
1433,191.454
1434,187.973
1435,184.86
1436,188.702
1437,191.697
1438,193.287
1439,186.237
1440,185.428
1441,189.917
1442,195.668
1443,197.642
1444,194.432
1445,186.774
1446,181.793
1447,184.364
1448,191.774
1449,196.97
1450,186.676
1451,184.242
1452,186.576
1453,193.016
1454,193.579
1455,189.068
1456,181.38
1457,175.041
1458,170.526
1459,177.414
1460,184.079
1461,187.308
1462,182.416
1463,177.154
1464,177.8
1465,178.894
1466,179.343
1467,174.813
1468,169.504
1469,164.503
1470,173.573
1471,179.327
1472,181.92
1473,182.629
1474,180.505
1475,174.665
1476,175.726
1477,177.449
1478,178.748
1479,179.524
1480,179.304
1481,176.702
1482,179.325
1483,181.869
1484,176.011
1485,177.85
1486,182.604
1487,179.346
1488,173.79
1489,167.487
1490,176.62
1491,183.378
1492,187.947
1493,178.964
1494,171.312
1495,165.431
1496,182.569
1497,192.442
1498,188.517
1499,173.794
1500,166.12
1501,175.287
1502,176.467
1503,175.06
1504,171.782
1505,171.999
1506,172.224
1507,168.943
1508,169.872
1509,171.253
1510,167.311
1511,163.368
1512,160
1513,160
1514,161.234
1515,163.139
1516,164.455
1517,163.841
1518,161.865
1519,159.888
1520,161.905
1521,166.955
1522,165.635
1523,162.605
1524,157.991
1525,155.349
1526,157.556
1527,164.825
1528,158.548
1529,155.307
1530,155.968
1531,157.26
1532,165.004
1533,180.896
1534,185.699
1535,190.234
1536,195.537
1537,189.946
1538,186.269
1539,186.932
1540,185.211
1541,183.219
1542,181.226
1543,179.821
1544,179.762
1545,181.758
1546,179.662
1547,176.75
1548,173.421
1549,171.836
1550,172.984
1551,178.316
1552,179
1553,175.774
1554,167.101
1555,168.914
1556,172.252
1557,175.591
1558,170.135
1559,162.942
1560,154.919
1561,162.885
1562,169.784
1563,171.792
1564,163.596
1565,156.109
1566,151.419
1567,156.494
1568,160
1569,160
1570,155.019
1571,153.764
1572,157.792
1573,165.645
1574,164.437
1575,152.338
1576,146.77
1577,147.917
1578,155.991
1579,160.707
1580,159.541
1581,152.864
1582,148.146
1583,151.513
1584,160.916
1585,159.567
1586,153.52
1587,145.266
1588,147.967
1589,146.913
1590,145.212
1591,154.001
1592,152.098
1593,146.611
1594,149.995
1595,154.332
1596,156.314
1597,148.861
1598,147
1599,146.067
1600,142.676
1601,147.978
1602,153.222
1603,153.901
1604,154.58
1605,154.48
1606,153.121
1607,156.718
1608,157.201
1609,153.118
1610,150.356
1611,149.684
1612,151.139
1613,155.228
1614,156.614
1615,156.478
1616,161.254
1617,159.536
1618,155.694
1619,159.791
1620,161
1621,160.174
1622,156.756
1623,157.599
1624,159.651
1625,161.704
1626,159.655
1627,155.018
1628,147.482
1629,148.925
1630,153.273
1631,159.894
1632,154.405
1633,148.141
1634,142.652
1635,148.835
1636,151.447
1637,149.319
1638,135.565
1639,135.568
1640,138.604
1641,137.227
1642,131.825
1643,128.264
1644,128.953
1645,134.14
1646,133.013
1647,125.089
1648,127.85
1649,130.209
1650,130.972
1651,123.371
1652,122.903
1653,124.666
1654,123.282
1655,120.797
1656,120.701
1657,125.549
1658,126.628
1659,125.715
1660,122.942
1661,120.168
1662,117.393
1663,116.149
1664,124.48
1665,123.123
1666,118.283
1667,115.503
1668,118.418
1669,120.204
1670,118.117
1671,123.913
1672,124.173
1673,118.9
1674,117.506
1675,118.775
1676,120.435
1677,117.645
1678,118.073
1679,116.652
1680,109.669
1681,114.686
1682,117.008
1683,114.702
1684,107.708
1685,110.576
1686,117.871
1687,117.171
1688,119.647
1689,119.468
1690,111.758
1691,112.897
1692,114
1693,114.178
1694,117.688
1695,117.24
1696,115.427
1697,117.536
1698,113.614
1699,110.755
1700,112.865
1701,112.341
1702,113.089
1703,114.798
1704,112.684
1705,112.477
1706,112.089
1707,108.562
1708,108.593
1709,109
1710,109.016
1711,111.136
1712,113.674
1713,116
1714,116
1715,106.813
1716,103.219
1717,115.255
1718,111.348
1719,105.268
1720,98.754
1721,96.6266
1722,99.5038
1723,103.21
1724,103.92
1725,110.933
1726,113.296
1727,109.126
1728,97.0383
1729,94.4212
1730,97.8522
1731,104.97
1732,103.564
1733,103.607
1734,107.136
1735,109.987
1736,106.4
1737,99.7863
1738,94.7906
1739,99.4092
1740,105.522
1741,110.466
1742,97.5999
1743,96.2164
1744,100.699
1745,103.561
1746,100.969
1747,99.3223
1748,100.232
1749,104.532
1750,104.111
1751,101.621
1752,100.186
1753,103.747
1754,106.343
1755,106.453
1756,99.9856
1757,96.5053
1758,96.9556
1759,103.43
1760,107.938
1761,105.862
1762,98.8073
1763,97.3663
1764,99.6881
1765,100.448
1766,96.1209
1767,97.4029
1768,98.4233
1769,100.163
1770,105.942
1771,103.457
1772,99.7465
1773,97.2193
1774,101.56
1775,101.065
1776,98.5843
1777,97.1357
1778,92.4024
1779,94.1984
1780,100.893
1781,100.168
1782,98.8841
1783,98.8518
1784,100.97
1785,98.7898
1786,98.4636
1787,98.6188
1788,97.164
1789,93.7716
1790,95.3625
1791,101
1792,101
1793,92.6137
1794,87.7288
1795,92.0522
1796,94.2412
1797,94.523
1798,93.5857
1799,92.1249
1800,92.6683
1801,95.7956
1802,99.4774
1803,96.5511
1804,91.247
1805,91.9153
1806,99.648
1807,95.2516
1808,95.0488
1809,96
1810,96
1811,90.9243
1812,91.7555
1813,94.0318
1814,90.3584
1815,90.6633
1816,92.5945
1817,94.5976
1818,92.3901
1819,94.4246
1820,93.2596
1821,88.0792
1822,88.8162
1823,95.6421
1824,98.6716
1825,93.0288
1826,93.767
1827,92.4836
1828,93.1972
1829,99.8478
1830,94.9431
1831,91.152
1832,89.2018
1833,89.9419
1834,98.189
1835,96.9223
1836,90.3283
1837,91.8108
1838,90.0589
1839,93.6671
1840,100.607
1841,98.3795
1842,96.7674
1843,89.8913
1844,81.4631
1845,99.3103
1846,95.3273
1847,86.3216
1848,79.7097
1849,86.413
1850,93.119
1851,93.8586
1852,87.1793
1853,89.4172
1854,91.104
1855,90.5072
1856,86.9093
1857,85.415
1858,83.9201
1859,84.1506
1860,87.1425
1861,90.1359
1862,88.337
1863,88.2519
1864,93.7243
1865,86.9786
1866,84.47
1867,84
1868,84
1869,84
1870,82.4038
1871,83.2664
1872,88.5125
1873,77.986
1874,80.3889
1875,87.0394
1876,92.1321
1877,94.3914
1878,87.293
1879,82.8248
1880,87.2902
1881,91.0616
1882,89.7325
1883,85.1045
1884,79.6914
1885,86.4906
1886,89.1761
1887,87.5913
1888,82.6988
1889,80.4288
1890,80.614
1891,85.8267
1892,93.0984
1893,87.7935
1894,85.0655
1895,83.5967
1896,83.8101
1897,87.6053
1898,86.6391
1899,85.5599
1900,85.4002
1901,86.9207
1902,86.279
1903,84.5545
1904,82.0279
1905,79.0402
1906,85.8967
1907,83.7726
1908,80.5816
1909,81.8395
1910,79.5504
1911,79
1912,80.0305
1913,81.7852
1914,80.2567
1915,82.5449
1916,81.1924
1917,78.4961
1918,85.3851
1919,88.0925
1920,82.9732
1921,76.6899
1922,78.9899
1923,85.8733
1924,90.1241
1925,86.6242
1926,74.9984
1927,86.5225
1928,95.6376
1929,94.7879
1930,85.8586
##>>>>>End Processed Spectral Data<<<<<
