##NAME:²É¼¯Í¼Æ×
##X_AXIS:Raman Shift(cm-1)
##Y_AXIS:ORIGINAL_REDUCE_DARK
##DATE:2025-04-02
##TIME:09:48:26
##LASERLENGTH:785
##LASERLEVEL:120
##INTGRTIME:5000
##>>>>>Begin Processed Spectral Data<<<<<
158,223
159,243.953
160,267.255
161,306.23
162,354.62
163,413.079
164,490.109
165,570.407
166,688.441
167,806.476
168,946.675
169,1092.1
170,1246.62
171,1408.89
172,1575.86
173,1755.43
174,1934.85
175,2088.04
176,2241.22
177,2362.43
178,2472.41
179,2568.53
180,2649.41
181,2724.44
182,2777.95
183,2831.46
184,2884.58
185,2937.68
186,2979.15
187,3015.45
188,3049.84
189,3081.74
190,3115.28
191,3156.51
192,3197.73
193,3254.9
194,3313.44
195,3356.35
196,3391.41
197,3420.79
198,3442.11
199,3467.63
200,3515.17
201,3562.71
202,3621.6
203,3681.61
204,3717.27
205,3740.4
206,3765.37
207,3792.97
208,3822.11
209,3859.07
210,3896.03
211,3906.79
212,3915.25
213,3921.61
214,3926.96
215,3943.7
216,3975.38
217,4000.4
218,3997.28
219,3994.15
220,4016.08
221,4039.3
222,4046
223,4046
224,4050.87
225,4061.16
226,4070.06
227,4074.54
228,4079.02
229,4086.18
230,4093.34
231,4097.07
232,4099.75
233,4101.48
234,4102.38
235,4106.01
236,4115.87
237,4125.61
238,4133.68
239,4141.76
240,4140.34
241,4137.2
242,4136.83
243,4138.18
244,4136.35
245,4129.61
246,4125.06
247,4131.36
248,4137.65
249,4152.45
250,4167.75
251,4168.1
252,4162.69
253,4157.97
254,4153.91
255,4149.47
256,4144.07
257,4139.34
258,4144.76
259,4150.17
260,4151.38
261,4151.83
262,4141.46
263,4124.75
264,4114.25
265,4112.44
266,4110.63
267,4108.82
268,4107.02
269,4090.86
270,4074.57
271,4061.46
272,4049.24
273,4048.14
274,4055.39
275,4051.28
276,4027.26
277,4008.77
278,4020.11
279,4031.44
280,4025.96
281,4019.61
282,4022.41
283,4028.31
284,4038.9
285,4053.44
286,4070.62
287,4092.89
288,4116.51
289,4148.34
290,4180.17
291,4235.6
292,4292.48
293,4342.59
294,4390.39
295,4434.22
296,4474.76
297,4511.61
298,4541.69
299,4568.81
300,4580.21
301,4591.61
302,4572.17
303,4551.63
304,4480.54
305,4394.71
306,4322.45
307,4259.86
308,4182.46
309,4082.36
310,3981.1
311,3875.45
312,3770.21
313,3684.18
314,3598.15
315,3524.7
316,3453.73
317,3376.76
318,3296.58
319,3235.08
320,3194.74
321,3152.02
322,3103.4
323,3055.42
324,3012.74
325,2970.06
326,2946.54
327,2924.5
328,2903.13
329,2882
330,2865.34
331,2852.01
332,2838.86
333,2825.98
334,2814.03
335,2805.29
336,2795.93
337,2775.67
338,2755.41
339,2740.01
340,2725.26
341,2707.23
342,2687.87
343,2677.75
344,2675.44
345,2675.56
346,2679.71
347,2679.44
348,2662.36
349,2646.22
350,2651.3
351,2656.38
352,2654.15
353,2650.92
354,2653.31
355,2657.94
356,2655.12
357,2646.32
358,2640.45
359,2639.06
360,2640.51
361,2651.17
362,2661.51
363,2668
364,2674.49
365,2663.88
366,2651.82
367,2643.31
368,2635.88
369,2637.27
370,2644.24
371,2644.58
372,2637.14
373,2631
374,2627.74
375,2625.51
376,2628.77
377,2632.08
378,2640.92
379,2649.77
380,2651.4
381,2651.87
382,2653.67
383,2656
384,2659.39
385,2663.59
386,2665.21
387,2663.34
388,2663.98
389,2670.98
390,2676.21
391,2670.61
392,2665
393,2659.86
394,2654.71
395,2649.57
396,2644.43
397,2641.98
398,2640.58
399,2636.98
400,2631.83
401,2629.21
402,2629.68
403,2630.3
404,2631.23
405,2629.76
406,2617.57
407,2606.36
408,2613.4
409,2620.44
410,2643.06
411,2667.01
412,2681.3
413,2693.05
414,2701.05
415,2707.17
416,2712.02
417,2715.78
418,2715.29
419,2708.7
420,2705.21
421,2709.45
422,2712.85
423,2711.9
424,2710.12
425,2688.43
426,2666.74
427,2667.6
428,2670.43
429,2669.87
430,2668.45
431,2667.36
432,2666.41
433,2674.54
434,2689.66
435,2700.12
436,2704.85
437,2701.53
438,2682.13
439,2665.02
440,2656.03
441,2648.51
442,2653.25
443,2657.98
444,2649.97
445,2641.91
446,2624.6
447,2606.11
448,2597.2
449,2591.03
450,2587.73
451,2585.83
452,2584.2
453,2582.77
454,2578.95
455,2572.29
456,2565.13
457,2557.05
458,2548.36
459,2537.89
460,2528.64
461,2526.26
462,2523.38
463,2510.99
464,2498.61
465,2492.11
466,2485.91
467,2491.51
468,2499.14
469,2495.59
470,2488.43
471,2470.55
472,2447.15
473,2435.65
474,2433.26
475,2433.81
476,2437.63
477,2435.08
478,2422.17
479,2408.56
480,2393.24
481,2380.81
482,2379.85
483,2379.54
484,2384.33
485,2388.7
486,2376.72
487,2364.73
488,2369.85
489,2376.09
490,2378.23
491,2379.67
492,2394.06
493,2412.31
494,2416.68
495,2414.76
496,2411.67
497,2407.82
498,2400.68
499,2390.58
500,2386.08
501,2388.48
502,2390.18
503,2390.66
504,2388.6
505,2380.41
506,2374.32
507,2375.76
508,2378.8
509,2391.35
510,2404.33
511,2423.16
512,2441.98
513,2449.24
514,2456.48
515,2464.63
516,2472.84
517,2480.64
518,2488.38
519,2496.5
520,2504.73
521,2504.9
522,2501.99
523,2505.14
524,2511.44
525,2517.45
526,2523.26
527,2526.51
528,2527.48
529,2521.89
530,2508.79
531,2498.05
532,2490.77
533,2486.34
534,2487.31
535,2479.51
536,2449.87
537,2427.89
538,2431.78
539,2433.07
540,2421.88
541,2412.11
542,2413.09
543,2413.24
544,2401.06
545,2388.89
546,2376.7
547,2364.52
548,2365.4
549,2366.86
550,2359.92
551,2352.12
552,2340.12
553,2327.43
554,2326.58
555,2328.53
556,2327.14
557,2324.7
558,2323.65
559,2323.16
560,2318.08
561,2310.74
562,2304.01
563,2297.65
564,2292.14
565,2287.24
566,2284.73
567,2284.24
568,2272.43
569,2249.38
570,2236.55
571,2235.56
572,2235
573,2235
574,2232.14
575,2224.77
576,2216.19
577,2205.38
578,2201.44
579,2212.26
580,2216.22
581,2202.93
582,2195.24
583,2204.1
584,2209.04
585,2200.17
586,2194.51
587,2202.39
588,2209
589,2209
590,2207.67
591,2197.8
592,2189.05
593,2189.55
594,2190.45
595,2195.89
596,2200.16
597,2185.82
598,2172.19
599,2177.63
600,2182.92
601,2176.98
602,2171.04
603,2159.2
604,2147.32
605,2154.72
606,2162.64
607,2151.17
608,2138.77
609,2151.02
610,2164.91
611,2172.4
612,2179.35
613,2190.8
614,2202.72
615,2211.09
616,2219.04
617,2228.31
618,2237.75
619,2256.7
620,2277.09
621,2280
622,2280
623,2289.29
624,2300.24
625,2309.53
626,2318.5
627,2329.13
628,2340.1
629,2332.93
630,2321.96
631,2335.58
632,2354.55
633,2359.23
634,2360.72
635,2355.3
636,2348.3
637,2336.83
638,2324.33
639,2325.26
640,2329.26
641,2330.82
642,2331.82
643,2323.83
644,2313.81
645,2314.87
646,2318.38
647,2308.68
648,2296.15
649,2304.39
650,2316.93
651,2315.65
652,2311.63
653,2315.23
654,2320.25
655,2330.41
656,2341.46
657,2337.81
658,2331.77
659,2337.14
660,2344.18
661,2331.21
662,2315.61
663,2319.42
664,2325.46
665,2330.13
666,2334.67
667,2326.59
668,2317.52
669,2323.19
670,2329.74
671,2321.76
672,2313.18
673,2334.77
674,2356.99
675,2360.03
676,2362.99
677,2362.48
678,2362.92
679,2384.67
680,2404.83
681,2402.3
682,2400.45
683,2405.52
684,2408.31
685,2393.61
686,2382.65
687,2394.31
688,2403.06
689,2397.48
690,2392.2
691,2388.14
692,2383.61
693,2377.52
694,2373.26
695,2374.28
696,2378.25
697,2389.44
698,2390.24
699,2369.39
700,2352.17
701,2341.48
702,2331.79
703,2323.64
704,2319
705,2319
706,2312.8
707,2299.55
708,2290.42
709,2285.32
710,2276.31
711,2264.06
712,2251.81
713,2239.55
714,2228.9
715,2219.19
716,2209.13
717,2198.9
718,2196
719,2196
720,2205.74
721,2218.54
722,2219.76
723,2218.22
724,2206.61
725,2193.29
726,2200.8
727,2210.54
728,2206.6
729,2202.03
730,2209.21
731,2216.2
732,2219.79
733,2221.77
734,2210.47
735,2204.01
736,2222.52
737,2237.11
738,2237.63
739,2237.58
740,2236.03
741,2243.18
742,2267.9
743,2293.83
744,2321.66
745,2342.09
746,2353.43
747,2367.41
748,2383.91
749,2397.78
750,2409.65
751,2422.18
752,2435.09
753,2442.96
754,2448.65
755,2443.3
756,2434.51
757,2421.86
758,2408.41
759,2385.23
760,2360.9
761,2351.02
762,2341.92
763,2339.33
764,2335.25
765,2318.14
766,2304.9
767,2310.09
768,2311.32
769,2300.42
770,2298.98
771,2317.67
772,2333.71
773,2345.66
774,2368.61
775,2403.97
776,2425.4
777,2435.29
778,2452
779,2472.82
780,2482.66
781,2487.87
782,2477.98
783,2463.91
784,2449.38
785,2434.79
786,2410.8
787,2387.09
788,2390.22
789,2389.26
790,2356.36
791,2328.03
792,2318.1
793,2312.79
794,2319.06
795,2320.86
796,2315.1
797,2310.79
798,2308.18
799,2305.56
800,2302.94
801,2305.36
802,2310.6
803,2310.08
804,2307.46
805,2309.17
806,2311.79
807,2318.27
808,2324.9
809,2318.08
810,2310.9
811,2300.92
812,2291.69
813,2285.38
814,2284.69
815,2296.79
816,2298.25
817,2284.04
818,2280.19
819,2286.51
820,2286.77
821,2283.08
822,2284.24
823,2287.4
824,2293.99
825,2301.38
826,2295.72
827,2289
828,2289
829,2287.65
830,2277.08
831,2266.27
832,2254.63
833,2249.36
834,2256.24
835,2254
836,2240.77
837,2226.93
838,2212.64
839,2201.91
840,2192.9
841,2189.33
842,2187.21
843,2184.61
844,2181.83
845,2172.28
846,2162.44
847,2150.76
848,2138.01
849,2122.07
850,2110.04
851,2104.73
852,2102.78
853,2104.37
854,2098.21
855,2087.03
856,2082.06
857,2079.4
858,2085.8
859,2093.79
860,2085.17
861,2076.42
862,2070.55
863,2068.75
864,2081.02
865,2091.06
866,2096.93
867,2094.9
868,2084.21
869,2084.21
870,2091.16
871,2093.39
872,2093.93
873,2110.22
874,2128.96
875,2129.53
876,2133.77
877,2162.7
878,2181.74
879,2173.16
880,2170.99
881,2178.5
882,2182.57
883,2183.65
884,2182.92
885,2181.31
886,2191.87
887,2205.3
888,2188.17
889,2170.67
890,2166.91
891,2159.94
892,2142.18
893,2130.4
894,2128.79
895,2125.23
896,2119.85
897,2108.43
898,2093.88
899,2099.22
900,2109.47
901,2112.56
902,2113.77
903,2100.81
904,2090.74
905,2089.66
906,2090.27
907,2093.52
908,2097.93
909,2103.34
910,2100.5
911,2094
912,2093
913,2093
914,2099.49
915,2105.25
916,2106.88
917,2108
918,2108
919,2102.2
920,2089.72
921,2090.07
922,2098.21
923,2105.09
924,2111.61
925,2109.45
926,2107.33
927,2110.59
928,2113.14
929,2113.69
930,2122.99
931,2144.23
932,2154.6
933,2157.32
934,2149.4
935,2137.95
936,2145
937,2151.5
938,2133.49
939,2117.67
940,2108.39
941,2100.71
942,2095.25
943,2096.54
944,2102.55
945,2095.7
946,2084.76
947,2076.36
948,2067.87
949,2056.92
950,2040.98
951,2011.94
952,2004.65
953,2023.83
954,2026.19
955,2018.51
956,2018.76
957,2020.96
958,2017.23
959,2014.79
960,2019.73
961,2024.86
962,2030.36
963,2020.73
964,1997.08
965,1994.24
966,2000.29
967,2011.69
968,2022.89
969,2021.24
970,2015.29
971,1996.56
972,1986.24
973,1986.79
974,1983.56
975,1978.04
976,1980.58
977,1985
978,1981.69
979,1978.69
980,1977.03
981,1973.06
982,1965.32
983,1962
984,1962
985,1967.07
986,1973.71
987,1976.12
988,1976.99
989,1970.34
990,1969.46
991,1979.44
992,1984.3
993,1984.86
994,1987.47
995,1990.8
996,1997.26
997,2002.85
998,2001.73
999,2001.57
1000,2003.23
1001,2004.9
1002,2006.57
1003,2019
1004,2035.14
1005,2036.53
1006,2034.64
1007,2019.04
1008,2015.96
1009,2035.47
1010,2042.43
1011,2039.64
1012,2042.01
1013,2045.92
1014,2048.73
1015,2049.63
1016,2042.37
1017,2039.34
1018,2042.69
1019,2053.89
1020,2070.11
1021,2060.12
1022,2045.1
1023,2047.9
1024,2048.74
1025,2043.7
1026,2044.13
1027,2050.85
1028,2051.85
1029,2050.17
1030,2044.96
1031,2041.96
1032,2058.8
1033,2063.59
1034,2044.49
1035,2043.5
1036,2056.99
1037,2055.63
1038,2050.01
1039,2064.61
1040,2072
1041,2053.98
1042,2045.51
1043,2048.89
1044,2046.22
1045,2040.58
1046,2041.01
1047,2043.05
1048,2051.51
1049,2053.42
1050,2043.26
1051,2038.34
1052,2037.21
1053,2028.3
1054,2018.21
1055,2023.3
1056,2024.06
1057,2013.31
1058,2004.85
1059,1998.62
1060,1990.71
1061,1982.22
1062,1975.37
1063,1968.69
1064,1962.45
1065,1959.25
1066,1959.82
1067,1968.94
1068,1981.99
1069,1979.85
1070,1975.61
1071,1967.09
1072,1966.35
1073,1977.16
1074,1981.37
1075,1981.94
1076,1991.09
1077,2000.3
1078,2002.58
1079,2005.92
1080,2011.05
1081,2010.88
1082,2007.46
1083,2017.38
1084,2028.06
1085,2028.64
1086,2032.93
1087,2043.78
1088,2042.41
1089,2033.27
1090,2028.06
1091,2023.87
1092,2022.73
1093,2019.5
1094,2012.63
1095,2003.99
1096,1994.26
1097,1998.99
1098,2004.35
1099,1999.19
1100,1990.31
1101,1975.39
1102,1977.33
1103,1988.81
1104,1975.59
1105,1960.4
1106,1950.05
1107,1948.05
1108,1957.83
1109,1958.67
1110,1955.22
1111,1953.38
1112,1949.82
1113,1938.88
1114,1936.73
1115,1944.8
1116,1943.65
1117,1939.03
1118,1940.15
1119,1939.95
1120,1935.91
1121,1931.27
1122,1926.07
1123,1937.39
1124,1951.96
1125,1951.39
1126,1953.12
1127,1959.48
1128,1962.35
1129,1962.93
1130,1970.61
1131,1979.3
1132,1987.99
1133,1998.4
1134,2011.15
1135,2020.26
1136,2027.8
1137,2030.83
1138,2035.62
1139,2046.07
1140,2051
1141,2051
1142,2052.41
1143,2055.2
1144,2069.16
1145,2076.51
1146,2072.43
1147,2081.94
1148,2098.82
1149,2091.87
1150,2087.61
1151,2099.85
1152,2110.64
1153,2119.97
1154,2132.05
1155,2144.2
1156,2147.12
1157,2147.96
1158,2145.04
1159,2146.26
1160,2149.76
1161,2165.27
1162,2180.34
1163,2190.87
1164,2199.9
1165,2207.51
1166,2216.54
1167,2226.43
1168,2241.08
1169,2253.44
1170,2262.23
1171,2258.97
1172,2250.17
1173,2258.63
1174,2261.59
1175,2249.25
1176,2234.22
1177,2217.18
1178,2223.2
1179,2228.99
1180,2217.22
1181,2212.66
1182,2216.2
1183,2209.27
1184,2198.39
1185,2176.59
1186,2166.33
1187,2175.17
1188,2185.63
1189,2196.83
1190,2173.75
1191,2155.63
1192,2150.9
1193,2164.17
1194,2189.57
1195,2180.77
1196,2170.37
1197,2167.41
1198,2161.37
1199,2152.49
1200,2166.76
1201,2182.15
1202,2176.23
1203,2175.16
1204,2179.9
1205,2165.06
1206,2147.16
1207,2161.4
1208,2169.29
1209,2167.51
1210,2162.77
1211,2156.85
1212,2151.5
1213,2149.03
1214,2152
1215,2147.86
1216,2140.13
1217,2128.88
1218,2117.74
1219,2107.02
1220,2108.59
1221,2117.52
1222,2116.31
1223,2111.78
1224,2099.85
1225,2098.19
1226,2103.56
1227,2105.1
1228,2108.19
1229,2117.15
1230,2107.02
1231,2082.5
1232,2095.58
1233,2110.22
1234,2115.61
1235,2125.98
1236,2140.36
1237,2135.63
1238,2129.87
1239,2129.27
1240,2140.85
1241,2162.45
1242,2159.71
1243,2157.98
1244,2171.79
1245,2183.95
1246,2194.76
1247,2183.75
1248,2175.81
1249,2188.44
1250,2191.64
1251,2187.43
1252,2183.76
1253,2178.14
1254,2166.09
1255,2178.05
1256,2207.59
1257,2210
1258,2208.74
1259,2203.92
1260,2214.38
1261,2234.9
1262,2230.85
1263,2232.63
1264,2251.97
1265,2260.54
1266,2262.96
1267,2271.33
1268,2277.2
1269,2277.81
1270,2275.53
1271,2271.7
1272,2260.79
1273,2254.92
1274,2257.34
1275,2263.3
1276,2270.54
1277,2277.21
1278,2276.27
1279,2265.34
1280,2256.79
1281,2253.42
1282,2277.74
1283,2292.72
1284,2298.19
1285,2301.07
1286,2306.57
1287,2323.62
1288,2331
1289,2331
1290,2325.92
1291,2320.78
1292,2316.51
1293,2322.1
1294,2333.14
1295,2350.23
1296,2353.53
1297,2333.37
1298,2319.48
1299,2309
1300,2309
1301,2307.87
1302,2305.42
1303,2288.25
1304,2270.92
1305,2265.41
1306,2256.79
1307,2245.75
1308,2247.86
1309,2241.87
1310,2214.87
1311,2202.7
1312,2198.47
1313,2209.53
1314,2209.11
1315,2192.52
1316,2182.7
1317,2175.7
1318,2173.86
1319,2166.06
1320,2153.14
1321,2148.07
1322,2145.18
1323,2145.79
1324,2145.59
1325,2145.52
1326,2157.24
1327,2164
1328,2164
1329,2171.44
1330,2178.77
1331,2177.54
1332,2187.14
1333,2205.07
1334,2224.77
1335,2235.74
1336,2228.93
1337,2221.23
1338,2216.58
1339,2241.98
1340,2263.16
1341,2279.9
1342,2267.36
1343,2252.72
1344,2244.03
1345,2262.83
1346,2295.25
1347,2301.46
1348,2307.41
1349,2313.01
1350,2327.81
1351,2342.87
1352,2351.58
1353,2362.94
1354,2375.99
1355,2371.63
1356,2371.72
1357,2378.57
1358,2376.05
1359,2371.3
1360,2367.55
1361,2375.87
1362,2392.72
1363,2380.71
1364,2373.48
1365,2374.73
1366,2391.64
1367,2408.31
1368,2404.56
1369,2393.84
1370,2378.19
1371,2382.95
1372,2385.27
1373,2383.39
1374,2384.5
1375,2385.75
1376,2384.49
1377,2387.42
1378,2392.98
1379,2391.73
1380,2390.21
1381,2388.32
1382,2391.13
1383,2391.9
1384,2383.09
1385,2383.67
1386,2389.38
1387,2395.67
1388,2403.46
1389,2412.91
1390,2405.64
1391,2396.74
1392,2389.17
1393,2382.05
1394,2375.84
1395,2374.58
1396,2377.44
1397,2383.75
1398,2351.8
1399,2327.64
1400,2318.79
1401,2316.5
1402,2309.81
1403,2281.32
1404,2264.13
1405,2252.95
1406,2235.2
1407,2221.73
1408,2212.85
1409,2183.89
1410,2160.5
1411,2152.88
1412,2137.61
1413,2120.62
1414,2107.28
1415,2094.7
1416,2082.53
1417,2067.9
1418,2063.22
1419,2070.22
1420,2060.25
1421,2049.97
1422,2043.6
1423,2041.52
1424,2036.74
1425,2013.14
1426,2012.21
1427,2025.5
1428,2036.35
1429,2030.96
1430,2007.96
1431,2008.92
1432,2015.03
1433,2026.54
1434,2025.98
1435,2023.57
1436,2026.13
1437,2021.49
1438,2015.1
1439,2026
1440,2031.35
1441,2031.99
1442,2014.37
1443,2006.17
1444,2011.31
1445,2004.77
1446,1997.02
1447,1990.59
1448,1998.19
1449,2005.46
1450,1992.59
1451,1987.17
1452,1984.5
1453,1967.76
1454,1959.31
1455,1958.02
1456,1965.62
1457,1959.65
1458,1935.78
1459,1943.27
1460,1949.7
1461,1945.83
1462,1939.42
1463,1934.77
1464,1938
1465,1934.08
1466,1928.56
1467,1932.45
1468,1935.55
1469,1938.04
1470,1938.68
1471,1942.65
1472,1949.78
1473,1936.8
1474,1934.82
1475,1948.45
1476,1945.97
1477,1941.2
1478,1936.01
1479,1929.23
1480,1923.13
1481,1919.88
1482,1926.12
1483,1932.87
1484,1927.01
1485,1931.84
1486,1940.52
1487,1936.61
1488,1930.41
1489,1923.03
1490,1923.69
1491,1926.38
1492,1930.95
1493,1926.48
1494,1925.79
1495,1929.71
1496,1916.67
1497,1910.34
1498,1916.22
1499,1915.86
1500,1914.11
1501,1911.49
1502,1898.21
1503,1886.44
1504,1884.47
1505,1890.99
1506,1896.91
1507,1892.32
1508,1878.83
1509,1864.63
1510,1862.66
1511,1856.74
1512,1851.06
1513,1858.29
1514,1842.9
1515,1818.53
1516,1833.01
1517,1844.79
1518,1853.69
1519,1849.07
1520,1836.47
1521,1818.81
1522,1842.56
1523,1853.66
1524,1853.03
1525,1862.28
1526,1870.88
1527,1878.81
1528,1879.65
1529,1884.29
1530,1893.55
1531,1890.22
1532,1903.17
1533,1937.61
1534,1933.22
1535,1938.77
1536,1961.97
1537,1957.34
1538,1958.64
1539,1972.58
1540,1990.1
1541,2006.47
1542,2020.42
1543,2024.36
1544,2030.32
1545,2041.63
1546,2051.77
1547,2064
1548,2079.98
1549,2083.16
1550,2093.92
1551,2120.58
1552,2149.57
1553,2166.01
1554,2160.68
1555,2180.98
1556,2201.26
1557,2215.28
1558,2222.86
1559,2231.33
1560,2242.7
1561,2243.41
1562,2239.08
1563,2229.04
1564,2227.4
1565,2225.92
1566,2223.24
1567,2223
1568,2214.57
1569,2194.45
1570,2198.6
1571,2193.77
1572,2174.97
1573,2171.45
1574,2166.91
1575,2160.19
1576,2148.23
1577,2139.06
1578,2133.01
1579,2134.34
1580,2126.01
1581,2108.59
1582,2094.44
1583,2081.02
1584,2068.96
1585,2068.28
1586,2052.74
1587,2028.67
1588,2025.29
1589,2017.32
1590,2006.32
1591,1994.15
1592,1980.2
1593,1967.88
1594,1967.2
1595,1966.52
1596,1965.69
1597,1964.34
1598,1966.03
1599,1967.07
1600,1963.68
1601,1964.63
1602,1966.22
1603,1966.9
1604,1970.48
1605,1976.38
1606,1985.21
1607,1996.53
1608,2007.2
1609,2016.72
1610,2036.17
1611,2053.87
1612,2069.46
1613,2083.09
1614,2098.27
1615,2113.61
1616,2119.75
1617,2117.67
1618,2107.61
1619,2081.65
1620,2070.15
1621,2061.7
1622,2043.93
1623,2015.49
1624,1985.1
1625,1957.04
1626,1934.24
1627,1920.46
1628,1919.09
1629,1880.5
1630,1847.54
1631,1823.84
1632,1815.61
1633,1799.65
1634,1778.77
1635,1767.09
1636,1758.53
1637,1746.7
1638,1714.38
1639,1703.45
1640,1691.7
1641,1659.35
1642,1632.73
1643,1614.36
1644,1607.47
1645,1593.51
1646,1577.03
1647,1558.6
1648,1546.18
1649,1538.58
1650,1536.5
1651,1547.55
1652,1533.87
1653,1514.67
1654,1513.28
1655,1508.04
1656,1498.9
1657,1484.35
1658,1483.63
1659,1484.96
1660,1486.68
1661,1471.42
1662,1463.39
1663,1460.52
1664,1457.05
1665,1456.48
1666,1455.57
1667,1450.01
1668,1435.33
1669,1427.12
1670,1432.69
1671,1425.12
1672,1423.12
1673,1426.1
1674,1413.56
1675,1399.24
1676,1391.94
1677,1416.36
1678,1401.07
1679,1388.63
1680,1405.39
1681,1408.26
1682,1405.69
1683,1399.03
1684,1399.73
1685,1393.57
1686,1382.81
1687,1370.91
1688,1371.71
1689,1375.69
1690,1377.79
1691,1374.84
1692,1363.99
1693,1345.64
1694,1338.62
1695,1340.4
1696,1344.29
1697,1335.86
1698,1330.16
1699,1323.23
1700,1312.67
1701,1313.98
1702,1311.01
1703,1302.92
1704,1291.65
1705,1283.71
1706,1280.64
1707,1286.99
1708,1279.1
1709,1267.61
1710,1255.02
1711,1257.85
1712,1257.33
1713,1254.62
1714,1252.5
1715,1251.46
1716,1249.76
1717,1246.22
1718,1251.32
1719,1252.13
1720,1247.2
1721,1231.6
1722,1239.51
1723,1251.37
1724,1249.24
1725,1241.44
1726,1232.91
1727,1225.98
1728,1239.49
1729,1245.42
1730,1242.55
1731,1225.47
1732,1226.65
1733,1223.86
1734,1213.65
1735,1227.19
1736,1226.48
1737,1218.61
1738,1212.9
1739,1208.99
1740,1214.88
1741,1232.27
1742,1238.7
1743,1224.46
1744,1207.27
1745,1216.57
1746,1226.49
1747,1230.39
1748,1226.85
1749,1223.98
1750,1228.19
1751,1231.73
1752,1223.12
1753,1227
1754,1226.92
1755,1221.79
1756,1231.13
1757,1224.04
1758,1217.04
1759,1227.11
1760,1223.41
1761,1216.86
1762,1212.6
1763,1232.05
1764,1226.79
1765,1215.67
1766,1209.18
1767,1209.7
1768,1209.58
1769,1207.11
1770,1197.72
1771,1191.87
1772,1187.43
1773,1184.18
1774,1187.8
1775,1189.48
1776,1186.88
1777,1176.02
1778,1182.88
1779,1179.75
1780,1168.75
1781,1173.83
1782,1159.38
1783,1152.68
1784,1166.99
1785,1166.26
1786,1165.07
1787,1159.23
1788,1141.05
1789,1142.87
1790,1145
1791,1145.81
1792,1151.64
1793,1161.95
1794,1165.25
1795,1156.14
1796,1161.98
1797,1150.64
1798,1136
1799,1136
1800,1137.34
1801,1141.19
1802,1145.09
1803,1139.96
1804,1134.25
1805,1136.55
1806,1147.41
1807,1140.09
1808,1134.33
1809,1135.12
1810,1146.86
1811,1157.15
1812,1151.82
1813,1139.64
1814,1134.5
1815,1129.36
1816,1136.57
1817,1150.2
1818,1145.78
1819,1131.66
1820,1127.11
1821,1136.19
1822,1147.24
1823,1140.59
1824,1135.91
1825,1143.29
1826,1150.67
1827,1148.96
1828,1139.87
1829,1124.36
1830,1134.11
1831,1142.16
1832,1140.95
1833,1118.74
1834,1127.92
1835,1134.27
1836,1135.84
1837,1135.09
1838,1122.06
1839,1121.22
1840,1131.13
1841,1131.87
1842,1125.22
1843,1116.33
1844,1110.46
1845,1128.31
1846,1122.56
1847,1115
1848,1111.82
1849,1100.64
1850,1101.98
1851,1100.29
1852,1090.18
1853,1092.42
1854,1085.27
1855,1079.6
1856,1080.59
1857,1073.87
1858,1084.42
1859,1086.66
1860,1066.21
1861,1070.7
1862,1073.6
1863,1074.16
1864,1072.52
1865,1085.26
1866,1074.16
1867,1065.76
1868,1077.48
1869,1064.72
1870,1067.38
1871,1074.42
1872,1077.2
1873,1059.91
1874,1049.61
1875,1051.12
1876,1065.38
1877,1054.84
1878,1058.61
1879,1063.39
1880,1061.48
1881,1054.69
1882,1051.87
1883,1049.07
1884,1045.08
1885,1045.83
1886,1054.23
1887,1054.49
1888,1045.2
1889,1054.28
1890,1049.86
1891,1045.63
1892,1045.64
1893,1049.43
1894,1054.51
1895,1054.18
1896,1049.51
1897,1047.24
1898,1065.37
1899,1067.4
1900,1061.2
1901,1069.56
1902,1050.53
1903,1043.48
1904,1045.94
1905,1051.92
1906,1038.21
1907,1030.83
1908,1028.87
1909,1030.25
1910,1019.57
1911,1013.52
1912,1012.37
1913,1013.5
1914,1002.8
1915,1007.36
1916,1012.6
1917,1015.83
1918,1019.66
1919,1026.28
1920,1031.78
1921,1034.54
1922,1033.01
1923,1024.6
1924,1029.97
1925,1036.4
1926,1034.47
1927,1028.32
1928,1034.24
1929,1033.04
1930,1021.3
##>>>>>End Processed Spectral Data<<<<<
